Dynamic Sitebased Spectral
X;Y;-96.698;-96.064;-95.432;-94.800;-94.167;-93.535;-92.903;-92.272;-91.638;-91.007;-90.375;-89.744;-89.112;-88.481;-87.848;-87.216;-86.585;-85.952;-85.321;-84.692;-84.059;-83.428;-82.797;-82.166;-81.533;-80.904;-80.273;-79.640;-79.010;-78.381;-77.749;-77.118;-76.487;-75.857;-75.227;-74.596;-73.966;-73.336;-72.705;-72.075;-71.445;-70.815;-70.185;-69.555;-68.925;-68.295;-67.665;-67.035;-66.405;-65.775;-65.145;-64.518;-63.888;-63.256;-62.629;-61.999;-61.370;-60.740;-60.113;-59.482;-58.854;-58.225;-57.596;-56.967;-56.340;-55.708;-55.081;-54.452;-53.826;-53.194;-52.568;-51.939;-51.310;-50.681;-50.055;-49.426;-48.797;-48.171;-47.542;-46.914;-46.287;-45.659;-45.030;-44.404;-43.776;-43.148;-42.522;-41.893;-41.265;-40.639;-40.013;-39.383;-38.757;-38.131;-37.501;-36.876;-36.250;-35.624;-34.994;-34.369;-33.743;-33.116;-32.490;-31.863;-31.235;-30.610;-29.985;-29.357;-28.732;-28.107;-27.480;-26.853;-26.228;-25.603;-24.976;-24.351;-23.726;-23.099;-22.474;-21.850;-21.221;-20.596;-19.971;-19.345;-18.720;-18.098;-17.473;-16.847;-16.223;-15.598;-14.972;-14.348;-13.723;-13.097;-12.475;-11.851;-11.225;-10.601;-9.977;-9.351;-8.727;-8.103;-7.480;-6.854;-6.232;-5.609;-4.983;-4.359;-3.736;-3.110;-2.489;-1.866;-1.240;-0.617;0.006;0.628;1.253;1.876;2.499;3.122;3.745;4.368;4.993;5.614;6.237;6.862;7.485;8.105;8.730;9.353;9.973;10.596;11.218;11.841;12.463;13.085;13.708;14.330;14.952;15.575;16.192;16.817;17.439;18.059;18.681;19.303;19.925;20.544;21.168;21.788;22.410;23.032;23.653;24.273;24.897;25.516;26.137;26.759;27.380;28.000;28.619;29.242;29.861;30.483;31.104;31.723;32.344;32.965;33.586;34.205;34.826;35.447;36.066;36.684;37.305;37.924;38.542;39.163;39.784;40.402;41.022;41.643;42.261;42.882;43.500;44.118;44.741;45.359;45.977;46.595;47.215;47.835;48.453;49.073;49.691;50.309;50.928;51.548;52.166;52.784;53.401;54.019;54.638;55.256;55.873;56.491;57.110;57.729;58.347;58.966;59.583;60.200;60.820;61.437;62.054;62.673;63.290;63.907;64.523;65.142;65.757;66.372;66.990;67.607;68.224;68.842;69.459;70.075;70.694;71.310;71.927;72.545;73.159;73.776;74.392;75.010;75.626;76.242;76.856;77.472;78.088;78.706;79.322;79.936;80.554;81.169;81.785;82.401;83.016;83.632;84.248;84.863;85.478;86.094;86.707;87.323;87.938;88.553;89.168;89.783;90.399;91.014;91.629;92.242;92.859;93.472;94.086;94.703;95.314;95.929;96.544;97.158;97.771;98.388;99.000;99.615;100.229;100.843;101.456;102.070;102.684;103.297;103.909;104.525;105.137;105.751;106.365;106.979;107.591;108.205;108.819;109.431;110.045;110.656;111.268;111.882;112.496;113.107;113.721;114.334;114.946;115.559;116.173;116.784;117.397;118.008;118.620;119.233;119.844;120.457;121.068;121.681;122.294;122.905;123.516;124.127;124.740;125.350;125.963;126.574;127.184;127.799;128.410;129.020;129.631;130.241;130.851;131.462;132.074;132.686;133.297;133.909;134.519;135.129;135.741;136.349;136.959;137.569;138.181;138.791;139.401;140.013;140.622;141.232;141.842;142.451;143.061;143.672;144.282;144.891;145.503;146.112;146.719;147.329;147.938;148.547;149.156;149.768;150.377;150.986;151.597;152.204;152.811;153.422;154.030;154.639;155.248;155.857;156.465;157.072;157.683;158.291;158.898;159.508;160.117;160.725;161.331;161.940;162.548;163.156;163.764;164.372;164.979;165.589;166.195;166.801;167.411;168.019;168.624;169.234;169.842;170.446;171.056;171.661;172.269;172.878;173.484;174.091;174.695;175.304;175.910;176.517;177.124;177.732;178.337;178.944;179.551;180.156;180.763;181.370;181.975;182.580;183.187;183.794;184.399;185.008;185.612;186.215;186.824;187.428;188.035;188.641;189.246;189.850;190.457;191.061;191.667;192.272;192.878;193.482;194.086;194.692;195.299;195.903;196.509;197.110;197.716;198.322;198.926;199.530;200.136;200.739;201.343;201.947;202.552;203.158;203.762;204.365;204.968;205.572;206.177;206.783;207.384;207.989;208.592;209.195;209.798;210.402;211.005;211.608;212.215;212.818;213.420;214.023;214.626;215.229;215.834;216.436;217.037;217.639;218.244;218.847;219.449;220.051;220.654;221.256;221.861;222.463;223.061;223.665;224.267;224.870;225.472;226.074;226.676;227.278;227.882;228.479;229.081;229.685;230.287;230.889;231.490;232.090;232.691;233.295;233.895;234.496;235.098;235.699;236.300;236.900;237.501;238.102;238.703;239.305;239.904;240.505;241.108;241.707;242.306;242.909;243.508;244.108;244.707;245.308;245.909;246.509;247.108;247.709;248.307;248.910;249.508;250.107;250.709;251.307;251.906;252.506;253.106;253.704;254.303;254.903;255.503;256.101;256.701;257.299;257.899;258.499;259.097;259.694;260.296;260.894;261.492;262.091;262.689;263.289;263.884;264.486;265.083;265.680;266.280;266.877;267.474;268.074;268.671;269.268;269.869;270.464;271.061;271.660;272.260;272.854;273.451;274.052;274.647;275.244;275.843;276.441;277.036;277.635;278.231;278.826;279.426;280.023;280.619;281.213;281.812;282.410;283.004;283.603;284.199;284.795;285.391;285.987;286.583;287.179;287.777;288.373;288.967;289.565;290.161;290.757;291.352;291.948;292.544;293.139;293.735;294.330;294.926;295.521;296.117;296.712;297.307;297.903;298.496;299.093;299.686;300.282;300.877;301.472;302.067;302.662;303.257;303.852;304.446;305.039;305.634;306.227;306.824;307.418;308.011;308.605;309.200;309.792;310.389;310.984;311.574;312.170;312.765;313.357;313.951;314.545;315.137;315.730;316.324;316.918;317.512;318.104;318.698;319.292;319.883;320.477;321.069;321.663;322.256;322.848;323.442;324.035;324.625;325.218;325.812;326.403;326.995;327.590;328.181;328.773;329.368;329.957;330.550;331.141;331.734;332.325;332.916;333.509;334.102;334.691;335.286;335.875;336.466;337.061;337.649;338.242;338.832;339.423;340.016;340.606;341.199;341.787;342.377;342.972;343.560;344.150;344.743;345.333;345.923;346.515;347.105;347.693;348.285;348.877;349.465;350.057;350.647;351.237;351.826;352.416;353.006;353.595;354.187;354.777;355.364;355.956;356.545;357.135;357.724;358.313;358.903;359.490;360.081;360.670;361.259;361.849;362.438;363.027;363.616;364.205;364.792;365.383;365.969;366.558;367.147;367.736;368.324;368.911;369.502;370.088;370.677;371.265;371.854;372.440;373.031;373.619;374.205;374.796;375.382;375.970;376.556;377.146;377.730;378.318;378.906;379.494;380.080;380.670;381.256;381.842;382.432;383.017;383.605;384.193;384.778;385.364;385.952;386.539;387.127;387.710;388.299;388.885;389.472;390.057;390.645;391.230;391.817;392.402;392.989;393.572;394.161;394.746;395.331;395.918;396.505;397.088;397.677;398.262;398.846;399.433;400.018;400.602;401.189;401.773;402.360;402.942;403.531;404.113;404.699;405.284;405.870;406.452;407.040;407.622;408.207;408.793;409.377;409.961;410.547;411.131;411.712;412.298;412.882;413.468;414.050;414.635;415.219;415.801;416.388;416.970;417.553;418.139;418.722;419.304;419.889;420.472;421.056;421.639;422.222;422.805;423.386;423.974;424.555;425.138;425.721;426.304;426.886;427.469;428.052;428.635;429.218;429.800;430.381;430.964;431.546;432.131;432.711;433.296;433.876;434.457;435.041;435.622;436.204;436.788;437.368;437.951;438.531;439.115;439.695;440.275;440.859;441.439;442.021;442.603;443.183;443.765;444.346;444.928;445.508;446.087;446.671;447.251;447.830;448.414;448.993;449.575;450.156;450.733;451.315;451.896;452.475;453.057;453.636;454.219;454.798;455.375;455.958;456.537;457.116;457.699;458.278;458.855;459.438;460.017;460.595;461.176;461.755;462.335;462.914;463.492;464.073;464.651;465.232;465.810;466.389;466.969;467.547;468.126;468.706;469.284;469.862;470.442;471.020;471.598;472.174;472.756;473.334;473.910;474.490;475.068;475.646;476.225;476.803;477.381;477.958;478.538;479.114;479.691;480.271;480.848;481.423;482.003;482.580;483.157;483.735;484.314;484.889;485.466;486.045;486.621;487.200;487.775;488.352;488.928;489.505;490.082;490.659;491.236;491.813;492.389;492.966;493.543;494.117;494.696;495.272;495.847;496.423;497.000;497.576;498.150;498.727;499.305;499.879;500.455;501.030;501.606;502.184;502.758;503.332;503.910;504.484;505.060;505.634;506.211;506.785;507.359;507.935;508.510;509.084;509.662;510.235;510.809;511.386;511.960;512.533;513.109;513.684;514.257;514.831;515.406;515.979;516.554;517.129;517.702;518.276;518.851;519.426;519.999;520.573;521.146;521.719;522.296;522.869;523.442;524.014;524.589;525.162;525.734;526.309;526.881;527.454;528.028;528.603;529.173;529.747;530.320;530.892;531.464;532.040;532.610;533.183;533.757;534.329;534.899;535.475;536.047;536.619;537.190;537.762;538.334;538.906;539.480;540.051;540.623;541.194;541.766;542.338;542.909;543.483;544.052;544.625;545.197;545.766;546.339;546.911;547.480;548.053;548.624;549.195;549.764;550.337;550.906;551.477;552.050;552.619;553.192;553.763;554.334;554.902;555.475;556.044;556.612;557.183;557.754;558.324;558.893;559.467;560.036;560.604;561.176;561.745;562.315;562.885;563.453;564.024;564.592;565.162;565.732;566.300;566.872;567.442;568.010;568.580;569.150;569.717;570.287;570.855;571.425;571.994;572.562;573.129;573.699;574.269;574.836;575.404;575.973;576.542;577.110;577.679;578.246;578.814;579.383;579.952;580.521;581.090;581.657;582.224;582.791;583.360;583.927;584.494;585.063;585.632;586.199;586.767;587.334;587.901;588.469;589.036;589.602;590.169;590.738;591.304;591.870;592.439;593.005;593.571;594.138;594.704;595.268;595.836;596.403;596.969;597.537;598.103;598.669;599.235;599.801;600.367;600.932;601.500;602.066;602.632;603.197;603.763;604.329;604.896;605.462;606.026;606.593;607.159;607.724;608.285;608.853;609.418;609.983;610.549;611.114;611.679;612.244;612.809;613.374;613.941;614.504;615.069;615.630;616.197;616.762;617.325;617.892;618.456;619.019;619.586;620.149;620.713;621.278;621.840;622.405;622.967;623.534;624.096;624.661;625.225;625.789;626.349;626.916;627.478;628.042;628.606;629.170;629.732;630.296;630.858;631.420;631.984;632.548;633.112;633.674;634.238;634.799;635.361;635.925;636.488;637.050;637.614;638.175;638.737;639.300;639.863;640.425;640.986;641.550;642.111;642.672;643.235;643.799;644.360;644.921;645.482;646.045;646.608;647.169;647.728;648.289;648.854;649.414;649.975;650.536;651.097;651.657;652.220;652.783;653.341;653.904;654.464;655.025;655.585;656.146;656.706;657.267;657.829;658.387;658.947;659.512;660.072;660.630;661.192;661.752;662.312;662.872;663.432;663.990;664.552;665.110;665.670;666.229;666.791;667.349;667.909;668.470;669.030;669.587;670.149;670.707;671.266;671.826;672.385;672.944;673.502;674.063;674.620;675.179;675.739;676.298;676.857;677.414;677.973;678.532;679.091;679.648;680.207;680.766;681.325;681.882;682.440;682.999;683.556;684.115;684.673;685.230;685.789;686.347;686.904;687.462;688.021;688.577;689.135;689.694;690.250;690.808;691.363;691.923;692.479;693.035;693.595;694.149;694.707;695.265;695.821;696.377;696.937;697.491;698.049;698.605;699.162;699.718;700.274;700.831;701.387;701.943;702.500;703.056;703.611;704.171;704.724;705.280;705.835;706.392;706.947;707.503;708.060;708.615;709.170;709.727;710.282;710.838;711.393;711.948;712.504;713.059;713.614;714.169;714.724;715.279;715.833;716.386;716.945;717.499;718.052;718.609;719.163;719.718;720.272;720.827;721.379;721.935;722.488;723.044;723.598;724.152;724.707;725.259;725.815;726.367;726.921;727.475;728.029;728.583;729.139;729.691;730.245;730.797;731.352;731.904;732.458;733.012;733.565;734.117;734.672;735.224;735.777;736.331;736.882;737.434;737.989;738.541;739.094;739.645;740.198;740.752;741.303;741.858;742.407;742.960;743.513;744.066;744.617;745.172;745.721;746.272;746.827;747.378;747.930;748.479;749.034;749.585;750.137;750.688;751.238;751.791;752.343;752.894;753.444;753.997;754.547;755.097;755.650;756.200;756.750;757.303;757.853;758.405;758.955;759.505;760.057;760.605;761.159;761.709;762.257;762.809;763.359;763.910;764.458;765.010;765.562;766.109;766.661;767.211;767.760;768.310;768.861;769.409;769.960;770.509;771.057;771.608;772.158;772.707;773.254;773.807;774.354;774.902;775.455;776.002;776.551;777.102;777.649;778.198;778.749;779.295;779.844;780.393;780.942;781.491;782.039;782.588;783.135;783.683;784.234;784.780;785.327;785.879;786.426;786.972;787.519;788.071;788.617;789.164;789.712;790.260;790.808;791.356;791.904;792.450;792.999;793.545;794.093;794.640;795.188;795.734;796.280;796.830;797.376;797.921;798.469;799.017;799.562;800.110;800.656;801.203;801.751;802.296;802.842;803.389;803.936;804.482;805.027;805.574;806.120;806.667;807.214;807.759;808.304;808.851;809.397;809.944;810.489;811.033;811.578;812.123;812.672;813.217;813.762;814.307;814.851;815.396;815.943;816.489;817.032;817.578;818.123;818.667;819.214;819.756;820.303;820.847;821.393;821.936;822.480;823.026;823.568;824.115;824.661;825.203;825.747;826.293;826.835;827.379;827.925;828.467;829.011;829.556;830.100;830.644;831.186;831.732;832.273;832.817;833.362;833.904;834.448;834.991;835.535;836.076;836.621;837.165;837.708;838.250;838.795;839.336;839.879;840.423;840.966;841.507;842.050;842.593;843.134;843.677;844.220;844.763;845.304;845.847;846.390;846.930;847.473;848.016;848.557;849.099;849.642;850.182;850.725;851.268;851.808;852.349;852.891;853.433;853.974;854.516;855.057;855.599;856.141;856.681;857.221;857.766;858.306;858.846;859.388;859.928;860.470;861.010;861.552;862.092;862.632;863.173;863.711;864.251;864.795;865.334;865.874;866.416;866.955;867.495;868.034;868.576;869.115;869.655;870.196;870.734;871.273;871.814;872.354;872.893;873.434;873.973;874.512;875.054;875.593;876.130;876.669;877.210;877.749;878.288;878.827;879.365;879.902;880.443;880.982;881.521;882.061;882.600;883.137;883.675;884.214;884.752;885.291;885.829;886.368;886.904;887.445;887.983;888.519;889.060;889.598;890.134;890.672;891.211;891.749;892.285;892.823;893.361;893.897;894.437;894.975;895.509;896.049;896.586;897.122;897.660;898.198;898.734;899.273;899.809;900.345;900.882;901.420;901.957;902.491;903.030;903.566;904.103;904.638;905.176;905.711;906.250;906.784;907.321;907.858;908.393;908.928;909.465;910.002;910.537;911.072;911.609;912.144;912.679;913.218;913.753;914.286;914.824;915.359;915.892;916.429;916.965;917.500;918.034;918.571;919.104;919.640;920.176;920.709;921.245;921.782;922.314;922.848;923.385;923.919;924.453;924.987;925.523;926.057;926.591;927.126;927.660;928.194;928.729;929.263;929.795;930.331;930.863;931.397;931.933;932.466;933.000;933.532;934.067;934.601;935.133;935.668;936.200;936.733;937.268;937.800;938.333;938.867;939.400;939.931;940.465;941.000;941.531;942.064;942.597;943.130;943.662;944.197;944.728;945.261;945.795;946.326;946.859;947.390;947.925;948.454;948.987;949.519;950.052;950.583;951.117;951.646;952.179;952.711;953.244;953.774;954.308;954.837;955.369;955.900;956.434;956.962;957.495;958.027;958.559;959.087;959.619;960.151;960.680;961.214;961.744;962.274;962.806;963.337;963.865;964.397;964.929;965.457;965.989;966.520;967.050;967.580;968.111;968.641;969.169;969.702;970.232;970.761;971.291;971.820;972.352;972.879;973.412;973.940;974.469;975.000;975.529;976.057;976.590;977.117;977.648;978.175;978.704;979.235;979.762;980.293;980.822;981.349;981.880;982.408;982.937;983.466;983.995;984.523;985.052;985.581;986.109;986.638;987.166;987.695;988.221;988.752;989.278;989.807;990.337;990.863;991.390;991.920;992.448;992.974;993.502;994.031;994.559;995.085;995.613;996.141;996.667;997.197;997.723;998.251;998.778;999.304;999.830;1000.360;1000.886;1001.411;1001.939;1002.469;1002.994;1003.520;1004.047;1004.575;1005.100;1005.628;1006.153;1006.679;1007.208;1007.734;1008.259;1008.786;1009.311;1009.839;1010.366;1010.891;1011.416;1011.941;1012.468;1012.995;1013.518;1014.045;1014.570;1015.095;1015.622;1016.149;1016.674;1017.201;1017.723;1018.248;1018.773;1019.302;1019.826;1020.351;1020.875;1021.400;1021.925;1022.451;1022.975;1023.500;1024.026;1024.551;1025.075;1025.597;1026.124;1026.648;1027.170;1027.696;1028.221;1028.745;1029.271;1029.795;1030.317;1030.843;1031.367;1031.889;1032.413;1032.939;1033.461;1033.984;1034.508;1035.032;1035.556;1036.079;1036.603;1037.125;1037.652;1038.174;1038.698;1039.223;1039.745;1040.268;1040.791;1041.315;1041.836;1042.360;1042.883;1043.404;1043.928;1044.451;1044.974;1045.495;1046.020;1046.541;1047.063;1047.588;1048.109;1048.632;1049.153;1049.674;1050.196;1050.717;1051.240;1051.763;1052.284;1052.807;1053.329;1053.850;1054.373;1054.895;1055.416;1055.937;1056.461;1056.982;1057.502;1058.023;1058.543;1059.065;1059.588;1060.108;1060.628;1061.153;1061.673;1062.193;1062.715;1063.234;1063.754;1064.278;1064.798;1065.318;1065.838;1066.360;1066.880;1067.398;1067.920;1068.440;1068.961;1069.483;1070.003;1070.523;1071.042;1071.562;1072.082;1072.601;1073.123;1073.642;1074.160;1074.682;1075.201;1075.720;1076.242;1076.759;1077.279;1077.800;1078.319;1078.839;1079.356;
