Dynamic Sitebased Spectral
X;Y;
50.000;50.000;-40.495;-39.924;-39.353;-38.782;-38.211;-37.640;-37.069;-36.498;-35.927;-35.356;-34.785;-34.215;-33.644;-33.073;-32.503;-31.932;-31.362;-30.791;-30.221;-29.651;-29.080;-28.510;-27.940;-27.370;-26.800;-26.230;-25.660;-25.090;-24.520;-23.950;-23.380;-22.810;-22.241;-21.671;-21.101;-20.532;-19.962;-19.393;-18.823;-18.254;-17.685;-17.116;-16.546;-15.977;-15.408;-14.839;-14.270;-13.701;-13.132;-12.563;-11.994;-11.426;-10.857;-10.288;-9.719;-9.151;-8.582;-8.014;-7.445;-6.877;-6.309;-5.740;-5.172;-4.604;-4.036;-3.468;-2.900;-2.332;-1.764;-1.196;-0.628;-0.060;0.508;1.076;1.643;2.211;2.778;3.346;3.913;4.481;5.048;5.616;6.183;6.750;7.317;7.884;8.452;9.019;9.586;10.153;10.719;11.286;11.853;12.420;12.987;13.553;14.120;14.686;15.253;15.819;16.386;16.952;17.519;18.085;18.651;19.217;19.783;20.349;20.915;21.481;22.047;22.613;23.179;23.745;24.311;24.876;25.442;26.008;26.573;27.139;27.704;28.269;28.835;29.400;29.965;30.531;31.096;31.661;32.226;32.791;33.356;33.921;34.486;35.051;35.615;36.180;36.745;37.309;37.874;38.439;39.003;39.567;40.132;40.696;41.261;41.825;42.389;42.953;43.517;44.081;44.645;45.209;45.773;46.337;46.901;47.465;48.028;48.592;49.156;49.719;50.283;50.846;51.410;51.973;52.536;53.100;53.663;54.226;54.789;55.352;55.915;56.478;57.041;57.604;58.167;58.730;59.293;59.855;60.418;60.981;61.543;62.106;62.668;63.231;63.793;64.355;64.918;65.480;66.042;66.604;67.166;67.728;68.290;68.852;69.414;69.976;70.538;71.099;71.661;72.223;72.784;73.346;73.907;74.469;75.030;75.592;76.153;76.714;77.275;77.837;78.398;78.959;79.520;80.081;80.642;81.203;81.763;82.324;82.885;83.446;84.006;84.567;85.127;85.688;86.248;86.809;87.369;87.929;88.490;89.050;89.610;90.170;90.730;91.290;91.850;92.410;92.970;93.530;94.090;94.649;95.209;95.769;96.328;96.888;97.447;98.007;98.566;99.125;99.685;100.244;100.803;101.362;101.921;102.480;103.039;103.598;104.157;104.716;105.275;105.834;106.393;106.951;107.510;108.068;108.627;109.185;109.744;110.302;110.861;111.419;111.977;112.535;113.093;113.651;114.210;114.768;115.325;115.883;116.441;116.999;117.557;118.115;118.672;119.230;119.787;120.345;120.902;121.460;122.017;122.574;123.132;123.689;124.246;124.803;125.360;125.917;126.474;127.031;127.588;128.145;128.702;129.259;129.815;130.372;130.929;131.485;132.042;132.598;133.155;133.711;134.267;134.824;135.380;135.936;136.492;137.048;137.604;138.160;138.716;139.272;139.828;140.384;140.939;141.495;142.051;142.606;143.162;143.717;144.273;144.828;145.384;145.939;146.494;147.049;147.605;148.160;148.715;149.270;149.825;150.380;150.935;151.489;152.044;152.599;153.154;153.708;154.263;154.817;155.372;155.926;156.481;157.035;157.590;158.144;158.698;159.252;159.806;160.360;160.914;161.468;162.022;162.576;163.130;163.684;164.237;164.791;165.345;165.898;166.452;167.005;167.559;168.112;168.666;169.219;169.772;170.325;170.879;171.432;171.985;172.538;173.091;173.644;174.197;174.749;175.302;175.855;176.408;176.960;177.513;178.065;178.618;179.170;179.723;180.275;180.827;181.380;181.932;182.484;183.036;183.588;184.140;184.692;185.244;185.796;186.348;186.899;187.451;188.003;188.554;189.106;189.658;190.209;190.761;191.312;191.863;192.415;192.966;193.517;194.068;194.619;195.170;195.721;196.272;196.823;197.374;197.925;198.476;199.026;199.577;200.128;200.678;201.229;201.779;202.330;202.880;203.430;203.981;204.531;205.081;205.631;206.181;206.731;207.281;207.831;208.381;208.931;209.481;210.031;210.581;211.130;211.680;212.229;212.779;213.328;213.878;214.427;214.977;215.526;216.075;216.624;217.173;217.723;218.272;218.821;219.370;219.918;220.467;221.016;221.565;222.114;222.662;223.211;223.760;224.308;224.857;225.405;225.953;226.502;227.050;227.598;228.146;228.695;229.243;229.791;230.339;230.887;231.435;231.982;232.530;233.078;233.626;234.173;234.721;235.269;235.816;236.364;236.911;237.458;238.006;238.553;239.100;239.648;240.195;240.742;241.289;241.836;242.383;242.930;243.477;244.023;244.570;245.117;245.663;246.210;246.757;247.303;247.850;248.396;248.943;249.489;250.035;250.581;251.128;251.674;252.220;252.766;253.312;253.858;254.404;254.950;255.495;256.041;256.587;257.133;257.678;258.224;258.769;259.315;259.860;260.406;260.951;261.496;262.041;262.587;263.132;263.677;264.222;264.767;265.312;265.857;266.402;266.947;267.491;268.036;268.581;269.125;269.670;270.214;270.759;271.303;271.848;272.392;272.936;273.481;274.025;274.569;275.113;275.657;276.201;276.745;277.289;277.833;278.377;278.920;279.464;280.008;280.551;281.095;281.639;282.182;282.725;283.269;283.812;284.355;284.899;285.442;285.985;286.528;287.071;287.614;288.157;288.700;289.243;289.786;290.329;290.871;291.414;291.957;292.499;293.042;293.584;294.127;294.669;295.211;295.754;296.296;296.838;297.380;297.922;298.464;299.006;299.548;300.090;300.632;301.174;301.716;302.257;302.799;303.341;303.882;304.424;304.965;305.507;306.048;306.590;307.131;307.672;308.213;308.755;309.296;309.837;310.378;310.919;311.460;312.000;312.541;313.082;313.623;314.163;314.704;315.245;315.785;316.326;316.866;317.407;317.947;318.487;319.027;319.568;320.108;320.648;321.188;321.728;322.268;322.808;323.348;323.888;324.427;324.967;325.507;326.046;326.586;327.126;327.665;328.205;328.744;329.283;329.823;330.362;330.901;331.440;331.979;332.518;333.058;333.596;334.135;334.674;335.213;335.752;336.291;336.829;337.368;337.907;338.445;338.984;339.522;340.061;340.599;341.137;341.675;342.214;342.752;343.290;343.828;344.366;344.904;345.442;345.980;346.518;347.056;347.593;348.131;348.669;349.206;349.744;350.281;350.819;351.356;351.894;352.431;352.968;353.505;354.043;354.580;355.117;355.654;356.191;356.728;357.265;357.801;358.338;358.875;359.412;359.948;360.485;361.022;361.558;362.095;362.631;363.167;363.704;364.240;364.776;365.312;365.848;366.385;366.921;367.457;367.993;368.528;369.064;369.600;370.136;370.672;371.207;371.743;372.278;372.814;373.349;373.885;374.420;374.956;375.491;376.026;376.561;377.096;377.632;378.167;378.702;379.237;379.771;380.306;380.841;381.376;381.911;382.445;382.980;383.515;384.049;384.584;385.118;385.652;386.187;386.721;387.255;387.789;388.324;388.858;389.392;389.926;390.460;390.994;391.528;392.061;392.595;393.129;393.663;394.196;394.730;395.263;395.797;396.330;396.864;397.397;397.930;398.464;398.997;399.530;400.063;400.596;401.129;401.662;402.195;402.728;403.261;403.794;404.326;404.859;405.392;405.924;406.457;406.989;407.522;408.054;408.586;409.119;409.651;410.183;410.715;411.248;411.780;412.312;412.844;413.376;413.908;414.439;414.971;415.503;416.035;416.566;417.098;417.629;418.161;418.692;419.224;419.755;420.287;420.818;421.349;421.880;422.411;422.942;423.473;424.004;424.535;425.066;425.597;426.128;426.659;427.189;427.720;428.251;428.781;429.312;429.842;430.373;430.903;431.433;431.964;432.494;433.024;433.554;434.084;434.614;435.145;435.674;436.204;436.734;437.264;437.794;438.324;438.853;439.383;439.912;440.442;440.971;441.501;442.030;442.560;443.089;443.618;444.147;444.677;445.206;445.735;446.264;446.793;447.322;447.851;448.379;448.908;449.437;449.966;450.494;451.023;451.551;452.080;452.608;453.137;453.665;454.193;454.722;455.250;455.778;456.306;456.834;457.362;457.890;458.418;458.946;459.474;460.002;460.530;461.057;461.585;462.112;462.640;463.168;463.695;464.222;464.750;465.277;465.804;466.332;466.859;467.386;467.913;468.440;468.967;469.494;470.021;470.548;471.075;471.601;472.128;472.655;473.181;473.708;474.235;474.761;475.287;475.814;476.340;476.866;477.393;477.919;478.445;478.971;479.497;480.023;480.549;481.075;481.601;482.127;482.653;483.178;483.704;484.230;484.755;485.281;485.806;486.332;486.857;487.383;487.908;488.433;488.958;489.483;490.009;490.534;491.059;491.584;492.109;492.633;493.158;493.683;494.208;494.733;495.257;495.782;496.306;496.831;497.355;497.880;498.404;498.928;499.453;499.977;500.501;501.025;501.549;502.073;502.597;503.121;503.645;504.169;504.693;505.217;505.740;506.264;506.788;507.311;507.835;508.358;508.882;509.405;509.928;510.452;510.975;511.498;512.021;512.544;513.068;513.591;514.114;514.636;515.159;515.682;516.205;516.728;517.250;517.773;518.296;518.818;519.341;519.863;520.385;520.908;521.430;521.952;522.475;522.997;523.519;524.041;524.563;525.085;525.607;526.129;526.651;527.172;527.694;528.216;528.738;529.259;529.781;530.302;530.824;531.345;531.867;532.388;532.909;533.430;533.952;534.473;534.994;535.515;536.036;536.557;537.078;537.599;538.119;538.640;539.161;539.682;540.202;540.723;541.243;541.764;542.284;542.805;543.325;543.845;544.366;544.886;545.406;545.926;546.446;546.966;547.486;548.006;548.526;549.046;549.566;550.085;550.605;551.125;551.644;552.164;552.683;553.203;553.722;554.242;554.761;555.280;555.799;556.319;556.838;557.357;557.876;558.395;558.914;559.433;559.951;560.470;560.989;561.508;562.026;562.545;563.064;563.582;564.101;564.619;565.137;565.656;566.174;566.692;567.211;567.729;568.247;568.765;569.283;569.801;570.319;570.837;571.354;571.872;572.390;572.908;573.425;573.943;574.460;574.978;575.495;576.013;576.530;577.048;577.565;578.082;578.599;579.116;579.633;580.150;580.667;581.184;581.701;582.218;582.735;583.252;583.768;584.285;584.802;585.318;585.835;586.351;586.868;587.384;587.900;588.417;588.933;589.449;589.965;590.481;590.997;591.513;592.029;592.545;593.061;593.577;594.093;594.609;595.124;595.640;596.155;596.671;597.186;597.702;598.217;598.733;599.248;599.763;600.278;600.794;601.309;601.824;602.339;602.854;603.369;603.884;604.399;604.913;605.428;605.943;606.457;606.972;607.487;608.001;608.516;609.030;609.544;610.059;610.573;611.087;611.602;612.116;612.630;613.144;613.658;614.172;614.686;615.200;615.713;616.227;616.741;617.255;617.768;618.282;618.795;619.309;619.822;620.336;620.849;621.362;621.876;622.389;622.902;623.415;623.928;624.441;624.954;625.467;625.980;626.493;627.006;627.519;628.031;628.544;629.057;629.569;630.082;630.594;631.107;631.619;632.131;632.644;633.156;633.668;634.180;634.692;635.204;635.716;636.228;636.740;637.252;637.764;638.276;638.787;639.299;639.811;640.322;640.834;641.345;641.857;642.368;642.880;643.391;643.902;644.413;644.925;645.436;645.947;646.458;646.969;647.480;647.991;648.502;649.012;649.523;650.034;650.545;651.055;651.566;652.076;652.587;653.097;653.608;654.118;654.628;655.138;655.649;656.159;656.669;657.179;657.689;658.199;658.709;659.219;659.729;660.238;660.748;661.258;661.767;662.277;662.787;663.296;663.806;664.315;664.824;665.334;665.843;666.352;666.861;667.371;667.880;668.389;668.898;669.407;669.916;670.424;670.933;671.442;671.951;672.459;672.968;673.477;673.985;674.494;675.002;675.510;676.019;676.527;677.035;677.544;678.052;678.560;679.068;679.576;680.084;680.592;681.100;681.608;682.115;682.623;683.131;683.639;684.146;684.654;685.161;685.669;686.176;686.683;687.191;687.698;688.205;688.713;689.220;689.727;690.234;690.741;691.248;691.755;692.262;692.768;693.275;693.782;694.289;694.795;695.302;695.808;696.315;696.821;697.328;697.834;698.340;698.847;699.353;699.859;700.365;700.871;701.377;701.883;702.389;702.895;703.401;703.907;704.413;704.918;705.424;705.930;706.435;706.941;707.446;707.952;708.457;708.962;709.468;709.973;710.478;710.983;711.488;711.994;712.499;713.004;713.508;714.013;714.518;715.023;715.528;716.032;716.537;717.042;717.546;718.051;718.555;719.060;719.564;720.068;720.573;721.077;721.581;722.085;722.589;723.093;723.597;724.101;724.605;725.109;725.613;726.117;726.620;727.124;727.628;728.131;728.635;729.138;729.642;730.145;730.649;731.152;731.655;732.159;732.662;733.165;733.668;734.171;734.674;735.177;735.680;736.183;736.685;737.188;737.691;738.194;738.696;739.199;739.701;740.204;740.706;741.209;741.711;742.213;742.716;743.218;743.720;744.222;744.724;745.226;745.728;746.230;746.732;747.234;747.736;748.237;748.739;749.241;749.742;750.244;750.745;751.247;751.748;752.250;752.751;753.252;753.754;754.255;754.756;755.257;755.758;756.259;756.760;757.261;757.762;758.263;758.764;759.264;759.765;760.266;760.766;761.267;761.767;762.268;762.768;763.268;763.769;764.269;764.769;765.270;765.770;766.270;766.770;767.270;767.770;768.270;768.770;769.269;769.769;770.269;770.769;771.268;771.768;772.267;772.767;773.266;773.766;774.265;774.764;775.264;775.763;776.262;776.761;777.260;777.759;778.258;778.757;779.256;779.755;780.254;780.753;781.251;781.750;782.249;782.747;783.246;783.744;784.243;784.741;785.239;785.738;786.236;786.734;787.232;787.730;788.228;788.726;789.224;789.722;790.220;790.718;791.216;791.714;792.211;792.709;793.207;793.704;794.202;794.699;795.197;795.694;796.191;796.689;797.186;797.683;798.180;798.677;799.174;799.671;800.168;800.665;801.162;801.659;802.156;802.653;803.149;803.646;804.143;804.639;805.136;805.632;806.129;806.625;807.121;807.618;808.114;808.610;809.106;809.602;810.098;810.594;811.090;811.586;812.082;812.578;813.074;813.569;814.065;814.561;815.056;815.552;816.047;816.543;817.038;817.534;818.029;818.524;819.019;819.515;820.010;820.505;821.000;821.495;821.990;822.485;822.980;823.474;823.969;824.464;824.959;825.453;825.948;826.442;826.937;827.431;827.926;828.420;828.914;829.409;829.903;830.397;830.891;831.385;831.879;832.373;832.867;833.361;833.855;834.349;834.843;835.336;835.830;836.324;836.817;837.311;837.804;838.298;838.791;839.285;839.778;840.271;840.764;841.258;841.751;842.244;842.737;843.230;843.723;844.216;844.708;845.201;845.694;846.187;846.679;847.172;847.665;848.157;848.650;849.142;849.634;850.127;850.619;851.111;851.604;852.096;852.588;853.080;853.572;854.064;854.556;855.048;855.540;856.031;856.523;857.015;857.507;857.998;858.490;858.981;859.473;859.964;860.456;860.947;861.438;861.930;862.421;862.912;863.403;863.894;864.385;864.876;865.367;865.858;866.349;866.840;867.330;867.821;868.312;868.802;869.293;869.783;870.274;870.764;871.255;871.745;872.235;872.726;873.216;873.706;874.196;874.686;875.176;875.666;876.156;876.646;877.136;877.626;878.115;878.605;879.095;879.584;880.074;880.563;881.053;881.542;882.032;882.521;883.010;883.500;883.989;884.478;884.967;885.456;885.945;886.434;886.923;887.412;887.901;888.390;888.878;889.367;889.856;890.344;890.833;891.321;891.810;892.298;892.787;893.275;893.763;894.252;894.740;895.228;895.716;896.204;896.692;897.180;897.668;898.156;898.644;899.132;899.619;900.107;900.595;901.082;901.570;902.057;902.545;903.032;903.520;904.007;904.494;904.981;905.469;905.956;906.443;906.930;907.417;907.904;908.391;908.878;909.365;909.851;910.338;910.825;911.312;911.798;912.285;912.771;913.258;913.744;914.231;914.717;915.203;915.689;916.176;916.662;917.148;917.634;918.120;918.606;919.092;919.578;920.064;920.549;921.035;921.521;922.006;922.492;922.978;923.463;923.949;924.434;924.919;925.405;925.890;926.375;926.861;927.346;927.831;928.316;928.801;929.286;929.771;930.256;930.741;931.225;931.710;932.195;932.679;933.164;933.649;934.133;934.618;935.102;935.586;936.071;936.555;937.039;937.524;938.008;938.492;938.976;939.460;939.944;940.428;940.912;941.396;941.879;942.363;942.847;943.330;943.814;944.298;944.781;945.265;945.748;946.231;946.715;947.198;947.681;948.165;948.648;949.131;949.614;950.097;950.580;951.063;951.546;952.029;952.511;952.994;953.477;953.959;954.442;954.925;955.407;955.890;956.372;956.854;957.337;957.819;958.301;958.784;959.266;959.748;960.230;960.712;961.194;961.676;962.158;962.640;963.121;963.603;964.085;964.567;965.048;965.530;966.011;966.493;966.974;967.456;967.937;968.418;968.900;969.381;969.862;970.343;970.824;971.305;971.786;972.267;972.748;973.229;973.710;974.190;974.671;975.152;975.632;976.113;976.594;977.074;977.555;978.035;978.515;978.996;979.476;979.956;980.436;980.916;981.396;981.876;982.356;982.836;983.316;983.796;984.276;984.756;985.235;985.715;986.195;986.674;987.154;987.633;988.113;988.592;989.072;989.551;990.030;990.509;990.989;991.468;991.947;992.426;992.905;993.384;993.863;994.342;994.820;995.299;995.778;996.257;996.735;997.214;997.692;998.171;998.649;999.128;999.606;1000.085;1000.563;1001.041;1001.519;1001.997;1002.475;1002.953;1003.432;1003.909;1004.387;1004.865;1005.343;1005.821;1006.299;1006.776;1007.254;1007.732;1008.209;1008.687;1009.164;1009.641;1010.119;1010.596;1011.073;1011.551;1012.028;1012.505;1012.982;1013.459;1013.936;1014.413;1014.890;1015.367;1015.844;1016.321;1016.797;1017.274;1017.751;1018.227;1018.704;1019.180;1019.657;1020.133;1020.610;1021.086;1021.562;1022.039;1022.515;1022.991;1023.467;1023.943;1024.419;1024.895;1025.371;1025.847;1026.323;1026.799;1027.274;1027.750;1028.226;1028.701;1029.177;1029.653;
